 	dT	T (0)	Base X (0)	Base Y (0)	Tip X (0)	Tip Y (0)	||[body,base]|| (0)	||[base,tip]||  (0)	||[base,tip]|| : [body,base] (0)	[base,tip] ? [body,base] (0)	?||[base,tip]|| : [body,base] (0)	||[tip(t-1),tip(t)]|| : [base,tip] (0)	||[base(t-1),base(t)]|| : [base,tip] (0)	T (1)	Base X (1)	Base Y (1)	Tip X (1)	Tip Y (1)	||[body,base]|| (1)	||[base,tip]||  (1)	||[base,tip]|| : [body,base] (1)	[base,tip] ? [body,base] (1)	?||[base,tip]|| : [body,base] (1)	||[tip(t-1),tip(t)]|| : [base,tip] (1)	||[base(t-1),base(t)]|| : [base,tip] (1)	T (2)	Base X (2)	Base Y (2)	Tip X (2)	Tip Y (2)	||[body,base]|| (2)	||[base,tip]||  (2)	||[base,tip]|| : [body,base] (2)	[base,tip] ? [body,base] (2)	?||[base,tip]|| : [body,base] (2)	||[tip(t-1),tip(t)]|| : [base,tip] (2)	||[base(t-1),base(t)]|| : [base,tip] (2)	T (3)	Base X (3)	Base Y (3)	Tip X (3)	Tip Y (3)	||[body,base]|| (3)	||[base,tip]||  (3)	||[base,tip]|| : [body,base] (3)	[base,tip] ? [body,base] (3)	?||[base,tip]|| : [body,base] (3)	||[tip(t-1),tip(t)]|| : [base,tip] (3)	||[base(t-1),base(t)]|| : [base,tip] (3)	T (4)	Base X (4)	Base Y (4)	Tip X (4)	Tip Y (4)	||[body,base]|| (4)	||[base,tip]||  (4)	||[base,tip]|| : [body,base] (4)	[base,tip] ? [body,base] (4)	?||[base,tip]|| : [body,base] (4)	||[tip(t-1),tip(t)]|| : [base,tip] (4)	||[base(t-1),base(t)]|| : [base,tip] (4)	T (5)	Base X (5)	Base Y (5)	Tip X (5)	Tip Y (5)	||[body,base]|| (5)	||[base,tip]||  (5)	||[base,tip]|| : [body,base] (5)	[base,tip] ? [body,base] (5)	?||[base,tip]|| : [body,base] (5)	||[tip(t-1),tip(t)]|| : [base,tip] (5)	||[base(t-1),base(t)]|| : [base,tip] (5)	T (6)	Base X (6)	Base Y (6)	Tip X (6)	Tip Y (6)	||[body,base]|| (6)	||[base,tip]||  (6)	||[base,tip]|| : [body,base] (6)	[base,tip] ? [body,base] (6)	?||[base,tip]|| : [body,base] (6)	||[tip(t-1),tip(t)]|| : [base,tip] (6)	||[base(t-1),base(t)]|| : [base,tip] (6)	T (7)	Base X (7)	Base Y (7)	Tip X (7)	Tip Y (7)	||[body,base]|| (7)	||[base,tip]||  (7)	||[base,tip]|| : [body,base] (7)	[base,tip] ? [body,base] (7)	?||[base,tip]|| : [body,base] (7)	||[tip(t-1),tip(t)]|| : [base,tip] (7)	||[base(t-1),base(t)]|| : [base,tip] (7)
1	0.000	1.000	13.065	13.390	5.915	19.500	6.047	9.405	9.082	54.925	NaN	NaN	NaN	1.000	25.415	17.810	32.370	20.930	9.836	7.623	7.098	69.822	NaN	NaN	NaN	1.000	13.780	19.565	12.025	23.075	9.976	3.924	3.922	39.128	NaN	NaN	NaN	1.000	19.500	21.190	20.280	23.075	10.446	2.040	1.950	20.365	NaN	NaN	NaN	1.000	16.380	20.410	16.185	24.830	9.856	4.424	4.356	42.939	NaN	NaN	NaN	1.000	12.220	18.525	7.150	26.000	9.979	9.032	8.997	89.785	NaN	NaN	NaN	1.000	17.875	21.385	18.850	27.755	10.615	6.444	6.298	66.856	NaN	NaN	NaN	76.000	20.930	22.750	21.125	22.750	11.024	0.195	0.068	0.748	NaN	NaN	NaN
2	1.000	2.000	13.000	13.390	5.850	19.565	6.079	9.447	9.074	55.157	-0.009	0.092	0.049	2.000	25.285	17.745	32.500	20.995	9.652	7.913	7.373	71.166	0.274	0.145	-0.145	2.000	13.715	19.695	11.960	23.205	10.064	3.924	3.922	39.470	-3.416E-4	0.145	0.145	2.000	19.630	21.515	20.280	23.075	10.717	1.690	1.619	17.348	-0.331	NaN	0.350	2.000	16.250	20.345	16.120	24.895	9.759	4.552	4.455	43.475	0.098	0.067	-0.061	2.000	12.220	18.460	7.020	26.065	9.879	9.213	9.173	90.622	0.176	0.127	-0.054	2.000	17.875	21.320	18.785	27.690	10.485	6.435	6.301	66.071	0.003	-0.074	-0.064	77.000	20.995	22.815	21.125	22.880	10.888	0.145	0.108	1.175	0.040	0.058	0.087
3	2.000	3.000	12.935	13.455	5.785	19.630	6.106	9.447	9.099	55.559	0.025	0.092	0.092	3.000	25.285	17.745	32.630	21.060	9.698	8.058	7.524	72.970	0.151	0.145	NaN	3.000	13.650	19.825	11.830	23.465	10.178	4.070	4.068	41.405	0.146	0.291	0.145	3.000	19.630	21.450	20.280	23.140	10.659	1.811	1.751	18.666	0.132	0.061	-0.061	3.000	16.315	20.215	16.120	25.025	9.603	4.814	4.732	45.440	0.277	0.130	-0.133	3.000	12.285	18.460	7.020	26.195	9.796	9.357	9.324	91.336	0.150	0.107	-0.037	3.000	17.810	21.320	18.850	27.755	10.485	6.518	6.358	66.666	0.057	0.075	-0.010	78.000	21.060	23.010	21.190	23.010	10.780	0.130	0.050	0.541	-0.058	0.065	0.065
4	3.000	4.000	12.870	13.520	5.850	19.630	6.192	9.307	9.022	55.863	-0.077	-0.049	0.092	4.000	25.155	17.680	32.695	21.060	9.699	8.263	7.679	74.478	0.155	0.059	-0.145	4.000	13.520	20.215	11.765	23.660	10.669	3.866	3.866	41.249	-0.202	0.203	0.407	4.000	19.565	21.125	20.280	23.140	10.466	2.138	2.082	21.793	0.331	NaN	-0.328	4.000	16.250	20.345	16.120	25.155	9.856	4.812	4.723	46.551	-0.009	0.130	0.132	4.000	12.220	18.590	7.020	26.195	9.999	9.213	9.193	91.923	-0.131	NaN	0.144	4.000	17.745	21.255	18.850	27.755	10.550	6.593	6.420	67.727	0.061	NaN	-0.075	79.000	21.060	22.945	21.255	23.140	10.533	0.276	0.258	2.712	0.207	0.138	-0.046
5	4.000	5.000	12.740	13.520	5.785	19.630	6.309	9.258	8.995	56.750	-0.027	0.049	0.098	5.000	25.090	17.615	32.760	21.190	9.746	8.462	7.895	76.946	0.216	0.114	-0.086	5.000	13.585	20.085	11.570	23.855	10.610	4.275	4.273	45.338	0.407	0.264	-0.145	5.000	19.565	20.995	20.280	23.205	10.473	2.323	2.279	23.867	0.197	0.062	-0.124	5.000	16.315	20.540	16.120	25.155	10.147	4.619	4.562	46.289	-0.161	NaN	0.192	5.000	12.155	18.720	7.020	26.325	10.205	9.176	9.162	93.499	-0.031	0.108	0.144	5.000	17.745	21.125	18.850	27.755	10.546	6.721	6.558	69.167	0.139	NaN	-0.128	80.000	21.060	22.750	21.320	22.880	10.555	0.291	0.228	2.408	-0.029	-0.058	-0.087
6	5.000	6.000	12.740	13.585	5.850	19.565	6.282	9.123	8.906	55.947	-0.089	-0.092	0.043	6.000	24.765	17.485	32.890	21.190	9.472	8.930	8.271	78.340	0.375	0.118	-0.350	6.000	13.585	20.020	11.440	24.115	10.523	4.623	4.622	48.634	0.349	0.291	-0.058	6.000	19.435	20.735	20.280	23.205	10.207	2.611	2.551	26.034	0.272	NaN	-0.288	6.000	16.380	20.800	16.120	25.285	10.378	4.493	4.458	46.260	-0.104	0.130	0.256	6.000	12.155	18.720	6.890	26.455	10.166	9.357	9.346	95.016	0.185	0.181	NaN	6.000	17.680	21.060	18.785	27.690	10.481	6.721	6.558	68.737	-5.064E-4	-0.075	-0.075	81.000	20.995	22.815	21.190	22.880	10.759	0.206	0.141	1.521	-0.087	-0.123	-0.041
7	6.000	7.000	12.675	13.585	5.850	19.565	5.966	9.074	8.880	52.982	-0.025	NaN	0.049	7.000	24.570	17.420	32.955	21.190	9.514	9.194	8.579	81.623	0.308	0.059	-0.205	7.000	13.650	19.890	11.310	24.310	10.151	5.001	4.993	50.683	0.371	0.233	-0.145	7.000	19.435	20.735	20.280	23.205	10.195	2.611	2.570	26.203	0.020	NaN	NaN	7.000	16.380	20.670	16.055	25.480	10.121	4.821	4.805	48.634	0.348	0.199	-0.130	7.000	12.090	18.720	6.825	26.520	9.921	9.411	9.407	93.326	0.060	0.090	0.036	7.000	17.680	21.190	18.850	27.755	10.532	6.668	6.542	68.901	-0.016	0.075	0.128	82.000	20.995	22.880	21.190	23.140	10.728	0.325	0.319	3.418	0.177	0.208	0.052
8	7.000	8.000	12.675	13.585	5.915	19.500	5.942	8.982	8.818	52.398	-0.062	-0.092	NaN	8.000	24.440	17.420	33.085	21.255	9.515	9.457	8.774	83.490	0.195	0.145	-0.119	8.000	13.650	19.825	11.180	24.440	10.124	5.234	5.222	52.872	0.229	0.176	-0.057	8.000	19.630	20.995	20.280	23.140	10.558	2.241	2.225	23.491	-0.345	-0.062	0.305	8.000	16.380	20.865	16.120	25.545	10.369	4.687	4.671	48.435	-0.134	0.061	0.195	8.000	11.960	18.720	6.890	26.585	10.012	9.358	9.345	93.563	-0.062	0.019	0.070	8.000	17.615	21.125	18.850	27.755	10.532	6.744	6.606	69.573	0.064	NaN	-0.076	83.000	20.865	22.880	21.385	23.205	10.678	0.613	0.509	5.433	0.190	0.200	-0.110
9	8.000	9.000	12.740	13.455	5.980	19.370	5.765	8.982	8.804	50.751	-0.014	-0.135	-0.135	9.000	24.310	17.420	33.215	21.385	9.470	9.748	9.031	85.522	0.256	0.172	-0.119	9.000	13.650	19.760	11.050	24.635	10.038	5.525	5.512	55.326	0.289	0.233	-0.057	9.000	19.565	20.995	20.280	23.140	10.558	2.261	2.236	23.609	0.011	NaN	-0.021	9.000	16.315	20.865	16.120	25.610	10.369	4.749	4.727	49.010	0.055	0.065	0.003	9.000	12.025	18.720	6.890	26.585	9.936	9.393	9.387	93.275	0.042	NaN	-0.036	9.000	17.550	21.125	18.850	27.690	10.532	6.692	6.540	68.876	-0.066	-0.064	-0.013	84.000	20.670	22.880	21.255	23.335	10.575	0.741	0.646	6.832	0.137	-0.023	-0.154
10	9.000	10.000	12.480	13.520	5.980	19.370	6.194	8.745	8.492	52.601	-0.312	NaN	0.237	10.000	24.635	17.550	33.345	21.385	9.654	9.517	8.803	84.986	-0.228	0.119	0.350	10.000	13.520	20.020	10.920	24.895	10.410	5.525	5.518	57.439	0.006	0.291	0.291	10.000	19.500	20.800	20.280	23.140	10.324	2.467	2.431	25.097	0.195	NaN	-0.206	10.000	16.250	20.995	16.120	25.675	10.536	4.682	4.640	48.892	-0.086	0.065	0.132	10.000	11.765	18.980	6.825	26.715	10.413	9.178	9.158	95.362	-0.229	0.145	0.359	10.000	17.485	21.125	18.850	27.755	10.540	6.769	6.565	69.193	0.025	0.064	-0.013	85.000	20.670	22.945	21.320	23.465	10.610	0.832	0.728	7.723	0.082	0.132	0.041
11	10.000	11.000	12.415	13.585	6.045	19.305	6.168	8.561	8.344	51.469	-0.148	-0.092	0.092	11.000	24.765	17.550	33.345	21.450	9.836	9.425	8.825	86.798	0.021	0.027	0.118	11.000	13.520	19.955	10.855	25.025	10.296	5.728	5.719	58.888	0.202	0.145	-0.058	11.000	19.435	20.605	20.280	23.205	10.141	2.734	2.702	27.399	0.271	0.062	-0.206	11.000	16.315	21.060	16.120	25.805	10.571	4.749	4.725	49.948	0.085	0.130	0.062	11.000	11.570	19.175	6.825	26.780	10.609	8.964	8.941	94.860	-0.216	0.055	0.269	11.000	17.420	21.125	18.850	27.755	10.537	6.782	6.573	69.256	0.008	NaN	-0.014	86.000	20.475	22.750	21.320	23.725	10.380	1.290	1.221	12.675	0.493	0.196	-0.275
12	11.000	12.000	12.415	13.715	6.045	19.370	6.080	8.518	8.305	50.493	-0.039	0.043	0.086	12.000	24.765	17.550	33.475	21.515	9.746	9.570	9.024	87.948	0.200	0.145	NaN	12.000	13.390	20.150	10.855	25.025	10.324	5.495	5.489	56.670	-0.230	NaN	0.233	12.000	19.370	20.475	20.345	23.270	9.820	2.960	2.918	28.654	0.216	0.083	-0.144	12.000	16.250	21.385	16.120	25.935	10.700	4.552	4.524	48.402	-0.201	0.130	0.327	12.000	11.375	19.305	6.825	26.780	10.634	8.751	8.711	92.633	-0.230	NaN	0.212	12.000	17.420	21.450	18.850	27.755	10.665	6.465	6.258	66.747	-0.314	NaN	0.317	87.000	20.475	22.815	21.450	23.985	10.369	1.523	1.441	14.944	0.220	0.283	0.050
13	12.000	13.000	12.545	13.650	5.980	19.370	5.961	8.707	8.481	50.552	0.176	0.049	-0.141	13.000	24.895	17.615	33.475	21.515	9.793	9.425	8.900	87.153	-0.124	NaN	0.145	13.000	13.455	20.085	10.920	25.090	10.206	5.610	5.608	57.236	0.119	0.029	-0.087	13.000	19.175	20.605	20.345	23.335	9.845	2.970	2.866	28.215	-0.052	0.060	0.043	13.000	16.250	21.320	16.120	26.065	10.581	4.747	4.712	49.859	0.189	0.130	-0.065	13.000	11.440	19.240	6.825	26.715	10.530	8.785	8.744	92.075	0.033	-0.055	-0.089	13.000	17.550	21.580	18.850	27.755	10.728	6.310	6.142	65.889	-0.117	NaN	0.154	88.000	20.540	22.880	21.645	24.245	10.575	1.756	1.669	17.652	0.228	0.325	0.091
14	13.000	14.000	12.675	13.650	6.045	19.370	5.821	8.756	8.585	49.973	0.104	-0.049	-0.098	14.000	24.895	17.615	33.475	21.515	9.884	9.425	8.899	87.965	-6.770E-4	NaN	NaN	14.000	13.520	19.955	10.985	25.025	10.092	5.668	5.666	57.177	0.057	-0.087	-0.145	14.000	19.110	20.605	20.345	23.205	9.909	2.878	2.745	27.205	-0.121	-0.117	-0.028	14.000	16.250	21.190	16.120	26.065	10.507	4.877	4.844	50.894	0.132	NaN	-0.130	14.000	11.440	19.175	6.760	26.780	10.491	8.930	8.891	93.275	0.147	0.089	-0.055	14.000	17.615	21.515	18.850	27.755	10.726	6.361	6.225	66.763	0.083	NaN	-0.051	89.000	20.345	22.685	21.840	24.440	10.263	2.305	2.166	22.228	0.497	0.275	-0.275
15	14.000	15.000	12.545	13.715	6.045	19.370	5.910	8.616	8.447	49.918	-0.138	NaN	0.141	15.000	24.700	17.485	33.475	21.515	9.701	9.656	9.131	88.581	0.232	NaN	-0.231	15.000	13.520	20.085	10.985	25.025	10.183	5.552	5.545	56.463	-0.121	NaN	0.116	15.000	19.045	20.605	20.345	23.075	9.909	2.791	2.626	26.018	-0.120	-0.115	-0.030	15.000	16.250	21.190	16.185	26.130	10.498	4.940	4.903	51.469	0.059	0.064	NaN	15.000	11.570	19.110	6.760	26.780	10.323	9.053	9.029	93.204	0.138	NaN	-0.124	15.000	17.680	21.515	18.850	27.755	10.725	6.349	6.240	66.924	0.015	NaN	0.012	90.000	20.410	22.750	21.905	24.570	10.218	2.355	2.217	22.659	0.052	0.142	0.091
16	15.000	16.000	12.480	13.715	5.980	19.370	5.853	8.616	8.456	49.496	0.009	0.049	0.049	16.000	24.375	17.355	33.410	21.450	9.470	9.920	9.350	88.548	0.219	-0.086	-0.350	16.000	13.715	19.565	10.985	24.960	9.576	6.046	6.037	57.811	0.492	-0.058	-0.552	16.000	19.110	20.735	20.410	23.205	10.067	2.791	2.642	26.592	0.016	0.145	0.145	16.000	16.185	21.385	16.185	26.260	10.683	4.875	4.835	51.651	-0.068	0.130	0.195	16.000	11.830	18.720	6.760	26.845	9.778	9.577	9.556	93.432	0.526	0.055	-0.469	16.000	17.745	21.450	18.850	27.755	10.662	6.401	6.324	67.427	0.084	NaN	-0.053	91.000	20.410	22.750	21.970	24.700	9.768	2.497	2.369	23.145	0.152	0.142	NaN
17	16.000	17.000	12.545	13.715	6.045	19.370	5.931	8.616	8.373	49.661	-0.083	-0.049	-0.049	17.000	24.700	17.485	33.475	21.450	9.472	9.629	9.104	86.232	-0.247	0.059	0.350	17.000	13.780	19.630	10.985	25.025	9.538	6.076	6.071	57.904	0.034	0.058	0.028	17.000	19.435	21.255	20.345	23.140	10.398	2.093	2.004	20.838	-0.638	-0.087	0.610	17.000	16.185	21.775	16.185	26.390	10.912	4.615	4.564	49.796	-0.272	0.130	0.390	17.000	11.895	18.590	6.695	26.910	9.634	9.811	9.760	94.032	0.204	0.090	-0.145	17.000	17.745	21.190	18.850	27.755	10.205	6.657	6.558	66.924	0.234	NaN	-0.256	92.000	20.410	22.750	22.100	24.830	9.852	2.680	2.540	25.020	0.170	0.183	NaN
18	17.000	18.000	12.545	13.715	6.045	19.370	5.966	8.616	8.438	50.341	0.064	NaN	NaN	18.000	24.505	17.420	33.475	21.450	9.469	9.834	9.226	87.356	0.122	NaN	-0.205	18.000	13.780	19.760	10.855	25.155	9.807	6.137	6.117	59.991	0.046	0.176	0.114	18.000	19.500	21.320	20.345	23.140	10.675	2.007	1.934	20.648	-0.070	NaN	0.086	18.000	16.250	21.320	16.185	26.520	10.636	5.200	5.158	54.853	0.594	0.130	-0.456	18.000	11.960	18.460	6.630	26.975	9.607	10.046	10.008	96.144	0.248	0.090	-0.145	18.000	17.680	20.995	18.850	27.755	10.205	6.861	6.752	68.910	0.195	NaN	-0.203	93.000	20.410	22.750	22.230	24.960	11.017	2.863	2.668	29.398	0.129	0.183	NaN
19	18.000	19.000	12.285	13.845	6.045	19.370	6.168	8.334	8.136	50.185	-0.302	NaN	0.281	19.000	24.505	17.485	33.605	21.515	9.515	9.952	9.335	88.826	0.109	0.145	0.026	19.000	13.845	19.630	10.855	25.285	9.576	6.397	6.379	61.089	0.262	0.115	-0.145	19.000	19.500	21.320	20.345	23.075	10.622	1.948	1.874	19.904	-0.060	-0.059	NaN	19.000	16.250	21.515	16.250	26.780	10.755	5.265	5.218	56.125	0.061	0.260	0.195	19.000	11.895	18.590	6.630	26.975	9.659	9.901	9.868	95.316	-0.140	NaN	0.145	19.000	17.550	20.800	18.850	27.690	9.946	7.012	6.872	68.352	0.120	-0.064	-0.216	94.000	20.280	22.620	22.295	25.025	9.847	3.138	2.935	28.903	0.267	0.092	-0.183
20	19.000	20.000	12.350	13.845	6.045	19.370	6.194	8.383	8.167	50.586	0.031	NaN	-0.049	20.000	24.765	17.615	33.735	21.515	9.654	9.781	9.167	88.497	-0.168	0.119	0.290	20.000	13.845	19.565	10.725	25.545	9.511	6.745	6.736	64.068	0.357	0.291	-0.058	20.000	19.500	21.320	20.410	23.140	10.536	2.035	1.942	20.466	0.069	0.087	NaN	20.000	16.185	21.710	16.250	26.780	10.912	5.070	5.004	54.600	-0.214	NaN	0.194	20.000	11.960	18.590	6.630	26.975	9.646	9.936	9.899	95.493	0.031	NaN	-0.035	20.000	17.550	20.735	18.850	27.755	9.818	7.139	6.983	68.563	0.111	0.064	-0.064	95.000	19.630	21.710	22.165	24.960	8.965	4.122	3.845	34.476	0.910	-0.131	-1.117
21	20.000	21.000	12.285	13.910	6.045	19.370	6.134	8.292	8.042	49.331	-0.124	NaN	0.092	21.000	24.700	17.550	33.800	21.515	9.475	9.926	9.372	88.805	0.205	0.060	-0.086	21.000	13.910	19.305	10.595	25.675	9.043	7.181	7.175	64.883	0.438	0.175	-0.261	21.000	19.500	21.255	20.475	23.270	10.291	2.238	2.152	22.143	0.209	0.145	-0.059	21.000	16.185	22.035	16.250	27.040	11.031	5.005	4.946	54.553	-0.058	0.260	0.325	21.000	11.830	18.525	6.630	26.910	9.481	9.867	9.797	92.891	-0.102	-0.055	0.013	21.000	17.615	21.060	18.850	27.755	9.946	6.808	6.678	66.421	-0.305	NaN	0.331	96.000	19.500	21.450	22.165	24.960	8.679	4.407	4.123	35.786	0.278	NaN	-0.286
22	21.000	22.000	12.415	13.845	6.045	19.370	6.402	8.432	8.255	52.846	0.212	NaN	-0.141	22.000	24.700	17.550	33.865	21.580	9.561	10.012	9.295	88.864	-0.077	0.086	NaN	22.000	13.845	19.305	10.465	25.935	9.535	7.442	7.440	70.946	0.266	0.291	0.030	22.000	19.435	21.125	20.475	23.335	10.498	2.442	2.331	24.471	0.179	0.059	-0.145	22.000	16.315	21.385	16.185	27.300	10.793	5.916	5.862	63.274	0.917	0.261	-0.653	22.000	11.830	18.590	6.630	26.845	9.999	9.756	9.704	97.036	-0.093	-0.055	0.055	22.000	17.680	21.255	18.850	27.755	10.535	6.604	6.461	68.065	-0.217	NaN	0.203	97.000	19.305	21.190	22.035	24.765	8.273	4.498	4.026	33.306	-0.098	-0.234	-0.325
23	22.000	23.000	12.350	13.910	6.045	19.370	6.257	8.341	8.168	51.106	-0.087	NaN	0.092	23.000	24.440	17.355	33.865	21.580	9.285	10.329	9.688	89.950	0.393	NaN	-0.317	23.000	13.910	19.175	10.400	26.130	9.189	7.791	7.787	71.555	0.347	0.203	-0.145	23.000	19.435	21.060	20.605	23.400	10.334	2.616	2.495	25.781	0.164	0.116	-0.058	23.000	16.250	21.515	16.250	27.495	10.774	5.980	5.917	63.747	0.055	0.195	0.130	23.000	11.830	18.590	6.565	27.040	9.777	9.956	9.905	96.845	0.201	0.200	NaN	23.000	17.745	21.385	18.850	27.690	10.530	6.401	6.298	66.320	-0.163	-0.064	0.139	98.000	19.110	21.060	21.905	24.635	8.006	4.538	4.034	32.296	0.008	-0.182	-0.223
24	23.000	24.000	11.830	14.170	6.045	19.370	6.806	7.779	7.566	51.494	-0.602	NaN	0.561	24.000	24.440	17.290	33.865	21.580	9.194	10.355	9.769	89.815	0.081	NaN	-0.027	24.000	14.105	18.980	10.335	26.195	8.871	8.141	8.130	72.121	0.343	0.088	-0.263	24.000	19.370	20.995	20.605	23.530	10.195	2.820	2.694	27.467	0.199	0.117	-0.087	24.000	16.315	21.775	16.250	27.625	10.957	5.850	5.804	63.599	-0.113	0.130	0.259	24.000	11.830	18.525	6.630	26.975	9.675	9.922	9.857	95.358	-0.049	-0.089	-0.055	24.000	17.745	21.645	18.785	27.495	10.725	5.942	5.844	62.674	-0.454	-0.203	0.256	99.000	19.045	20.800	21.840	24.635	7.777	4.745	4.334	33.707	0.300	-0.038	-0.248
25	24.000	25.000	11.765	14.235	6.045	19.370	6.803	7.687	7.438	50.599	-0.128	NaN	0.092	25.000	24.505	17.225	33.865	21.515	9.064	10.296	9.806	88.877	0.037	-0.027	0.032	25.000	14.105	18.915	10.270	26.455	8.635	8.459	8.456	73.021	0.326	0.261	-0.058	25.000	19.435	20.995	20.670	23.595	10.013	2.878	2.766	27.695	0.072	0.087	0.028	25.000	16.250	22.035	16.250	27.820	11.031	5.785	5.727	63.172	-0.077	0.195	0.260	25.000	11.830	18.590	6.565	26.975	9.573	9.901	9.837	94.163	-0.020	0.035	0.055	25.000	17.745	21.840	18.785	27.495	10.725	5.750	5.649	60.582	-0.195	NaN	0.192	100.000	19.045	20.800	21.905	24.570	7.791	4.732	4.301	33.504	-0.034	-0.012	NaN
26	25.000	26.000	12.220	13.975	6.175	19.305	6.397	8.059	7.742	49.521	0.304	-0.140	-0.513	26.000	24.570	17.225	33.995	21.580	8.880	10.383	9.900	87.918	0.095	0.145	0.059	26.000	14.040	18.850	10.140	26.585	8.577	8.663	8.662	74.288	0.206	0.175	-0.029	26.000	19.955	22.165	20.605	23.595	11.093	1.571	1.522	16.883	-1.244	-0.027	1.280	26.000	16.315	22.295	16.250	27.950	11.178	5.655	5.600	62.598	-0.127	0.130	0.259	26.000	11.960	18.395	6.565	27.040	9.363	10.190	10.085	94.425	0.248	0.055	-0.234	26.000	17.810	22.035	18.785	27.495	10.792	5.546	5.441	58.723	-0.207	NaN	0.203	101.000	19.045	20.930	21.905	24.570	7.868	4.629	4.186	32.938	-0.114	NaN	0.102
27	26.000	27.000	12.350	13.910	6.175	19.240	6.163	8.157	7.897	48.668	0.156	-0.042	-0.141	27.000	24.375	17.160	33.995	21.580	8.832	10.587	10.072	88.962	0.172	NaN	-0.204	27.000	14.040	18.720	10.010	26.650	8.459	8.895	8.895	75.247	0.233	0.117	-0.116	27.000	19.825	21.970	20.605	23.595	10.965	1.803	1.738	19.055	0.216	NaN	-0.232	27.000	16.315	22.295	16.315	27.950	11.224	5.655	5.600	62.855	2.855E-4	3.980E-18	NaN	27.000	12.025	18.330	6.565	27.105	9.238	10.335	10.249	94.682	0.164	0.055	-0.090	27.000	17.810	22.100	18.785	27.430	10.920	5.418	5.324	58.140	-0.117	-0.064	0.064	102.000	18.980	20.995	21.840	24.505	8.605	4.528	3.987	34.307	-0.199	-0.091	0.009
28	27.000	28.000	12.415	13.780	6.175	19.240	6.000	8.292	7.875	47.252	-0.022	NaN	-0.135	28.000	24.700	17.225	34.060	21.645	8.897	10.351	9.985	88.843	-0.087	0.087	0.322	28.000	14.105	18.460	9.945	26.715	7.999	9.244	9.239	73.904	0.344	0.087	-0.261	28.000	19.760	21.775	20.540	23.595	10.494	1.980	1.928	20.229	0.190	-0.026	-0.205	28.000	16.250	22.685	16.315	28.015	11.371	5.330	5.261	59.826	-0.339	0.065	0.389	28.000	12.025	18.330	6.565	27.040	9.081	10.280	10.165	92.308	-0.084	-0.055	NaN	28.000	17.875	22.295	18.785	27.430	10.855	5.215	5.129	55.681	-0.195	NaN	0.203	103.000	18.850	20.865	21.840	24.505	8.709	4.711	4.099	35.701	0.112	NaN	-0.183
